# Pbox  12860.00  17 4095  0.0     0    1.0000 0.26907     4
# VJ2.2C  pw (us)  pwr  pwrf  dres  dmf  dcyc   B1max (kHz)  Stype
# ---------------------------------------------------------------
# Pxsim 0.0128600 266.7695 0.000 2099.5 0.0000000 0.0000000 0.00
# data: pw (s) B1max (Hz) status sw (Hz) T1 (s)   T2 (s) RDC (Hz)
# ---------------------------------------------------------------
# Pbox.inp data :
# ~~~~~~~~~~~~~~~~~~~~~~~~~~~Waves~~~~~~~~~~~~~~~~~~~~~~~~~~~~~~~~~~
#   shape   bw(/pw)   ofs  st  ph  fla  trev  d1  d2   d0   wrp  php
# ~~~~~~~~~~~~~~~~~~~~~~~~~~~~~~~~~~~~~~~~~~~~~~~~~~~~~~~~~~~~~~~~~~
# { eburp1 350.000 0.000 0  }
#
# type      = r          mod       = n          dres      = n         
# steps     = n          stepsize  = 10.00      attn      = i         
# refofs    = n          wrap      = n          sfrq      = n         
# sucyc     = d          reps      = 2          header    = y         
# bscor     = n          pad1      = n          pad2      = n         
# bsim      = n          T1        = n          T2        = n         
# rdc       = n          dcyc      = n          sw        = n         
#
# RF Calibration Data :  ref_pwr   = 36         ref_pw90  = 104.25
# ~~~~~~~~~~~~~~~~~~~~~
###
# ------------------- Shape data ------------------
# pwtot      = 0.0128600 (total pw, s)
# power      = 17 (power level, dB)
# pwrf       = 4095 (fine power)
# B1max      = 0.2691 (B1max, kHz)
# B1rms      = 0.1207 (B1[RMS], kHz)
# nptot      = 1286 (total number of steps)
# stepsize   = 10.00 (length of a single step, us)
# maxamp     = 1015.2 (max amplitude)
# ------------------------------------------------- 
#      phase      amplitude   length     gate 
# ------------------------------------------------- 
        0.00      1023.00      0.0        0
       0.000        1.962      1.0        1
       0.000        0.754      1.0        1
       0.000        0.000      1.0        1
     180.000        0.000      1.0        1
     180.000        0.766      1.0        1
     180.000        1.905      1.0        1
     180.000        3.029      1.0        1
     180.000        4.135      1.0        1
     180.000        5.226      1.0        1
     180.000        6.301      1.0        1
     180.000        7.360      1.0        1
     180.000        8.404      1.0        1
     180.000        9.433      1.0        1
     180.000       10.447      1.0        1
     180.000       11.446      1.0        1
     180.000       12.431      1.0        1
     180.000       13.401      1.0        1
     180.000       14.357      1.0        1
     180.000       15.300      1.0        1
     180.000       16.228      1.0        1
     180.000       17.143      1.0        1
     180.000       18.046      1.0        1
     180.000       18.935      1.0        1
     180.000       19.811      1.0        1
     180.000       20.675      1.0        1
     180.000       21.526      1.0        1
     180.000       22.365      1.0        1
     180.000       23.193      1.0        1
     180.000       24.008      1.0        1
     180.000       24.812      1.0        1
     180.000       25.605      1.0        1
     180.000       26.387      1.0        1
     180.000       27.158      1.0        1
     180.000       27.919      1.0        1
     180.000       28.669      1.0        1
     180.000       29.408      1.0        1
     180.000       30.138      1.0        1
     180.000       30.858      1.0        1
     180.000       31.569      1.0        1
     180.000       32.270      1.0        1
     180.000       32.962      1.0        1
     180.000       33.645      1.0        1
     180.000       34.319      1.0        1
     180.000       34.984      1.0        1
     180.000       35.641      1.0        1
     180.000       36.291      1.0        1
     180.000       36.932      1.0        1
     180.000       37.565      1.0        1
     180.000       38.191      1.0        1
     180.000       38.809      1.0        1
     180.000       39.420      1.0        1
     180.000       40.024      1.0        1
     180.000       40.621      1.0        1
     180.000       41.211      1.0        1
     180.000       41.795      1.0        1
     180.000       42.373      1.0        1
     180.000       42.944      1.0        1
     180.000       43.510      1.0        1
     180.000       44.070      1.0        1
     180.000       44.624      1.0        1
     180.000       45.172      1.0        1
     180.000       45.715      1.0        1
     180.000       46.253      1.0        1
     180.000       46.786      1.0        1
     180.000       47.314      1.0        1
     180.000       47.837      1.0        1
     180.000       48.356      1.0        1
     180.000       48.870      1.0        1
     180.000       49.380      1.0        1
     180.000       49.886      1.0        1
     180.000       50.387      1.0        1
     180.000       50.885      1.0        1
     180.000       51.379      1.0        1
     180.000       51.869      1.0        1
     180.000       52.355      1.0        1
     180.000       52.838      1.0        1
     180.000       53.317      1.0        1
     180.000       53.794      1.0        1
     180.000       54.267      1.0        1
     180.000       54.737      1.0        1
     180.000       55.204      1.0        1
     180.000       55.668      1.0        1
     180.000       56.129      1.0        1
     180.000       56.587      1.0        1
     180.000       57.043      1.0        1
     180.000       57.496      1.0        1
     180.000       57.946      1.0        1
     180.000       58.395      1.0        1
     180.000       58.840      1.0        1
     180.000       59.283      1.0        1
     180.000       59.724      1.0        1
     180.000       60.163      1.0        1
     180.000       60.599      1.0        1
     180.000       61.033      1.0        1
     180.000       61.465      1.0        1
     180.000       61.895      1.0        1
     180.000       62.323      1.0        1
     180.000       62.748      1.0        1
     180.000       63.172      1.0        1
     180.000       63.593      1.0        1
     180.000       64.012      1.0        1
     180.000       64.430      1.0        1
     180.000       64.845      1.0        1
     180.000       65.258      1.0        1
     180.000       65.669      1.0        1
     180.000       66.078      1.0        1
     180.000       66.485      1.0        1
     180.000       66.890      1.0        1
     180.000       67.293      1.0        1
     180.000       67.693      1.0        1
     180.000       68.092      1.0        1
     180.000       68.488      1.0        1
     180.000       68.882      1.0        1
     180.000       69.273      1.0        1
     180.000       69.663      1.0        1
     180.000       70.049      1.0        1
     180.000       70.434      1.0        1
     180.000       70.816      1.0        1
     180.000       71.195      1.0        1
     180.000       71.572      1.0        1
     180.000       71.946      1.0        1
     180.000       72.317      1.0        1
     180.000       72.686      1.0        1
     180.000       73.051      1.0        1
     180.000       73.414      1.0        1
     180.000       73.773      1.0        1
     180.000       74.129      1.0        1
     180.000       74.483      1.0        1
     180.000       74.832      1.0        1
     180.000       75.179      1.0        1
     180.000       75.521      1.0        1
     180.000       75.861      1.0        1
     180.000       76.196      1.0        1
     180.000       76.528      1.0        1
     180.000       76.855      1.0        1
     180.000       77.179      1.0        1
     180.000       77.498      1.0        1
     180.000       77.813      1.0        1
     180.000       78.124      1.0        1
     180.000       78.430      1.0        1
     180.000       78.732      1.0        1
     180.000       79.028      1.0        1
     180.000       79.320      1.0        1
     180.000       79.607      1.0        1
     180.000       79.888      1.0        1
     180.000       80.164      1.0        1
     180.000       80.435      1.0        1
     180.000       80.700      1.0        1
     180.000       80.959      1.0        1
     180.000       81.213      1.0        1
     180.000       81.460      1.0        1
     180.000       81.701      1.0        1
     180.000       81.936      1.0        1
     180.000       82.164      1.0        1
     180.000       82.386      1.0        1
     180.000       82.600      1.0        1
     180.000       82.808      1.0        1
     180.000       83.009      1.0        1
     180.000       83.202      1.0        1
     180.000       83.388      1.0        1
     180.000       83.566      1.0        1
     180.000       83.736      1.0        1
     180.000       83.898      1.0        1
     180.000       84.052      1.0        1
     180.000       84.198      1.0        1
     180.000       84.335      1.0        1
     180.000       84.464      1.0        1
     180.000       84.583      1.0        1
     180.000       84.694      1.0        1
     180.000       84.796      1.0        1
     180.000       84.888      1.0        1
     180.000       84.970      1.0        1
     180.000       85.043      1.0        1
     180.000       85.105      1.0        1
     180.000       85.158      1.0        1
     180.000       85.200      1.0        1
     180.000       85.232      1.0        1
     180.000       85.253      1.0        1
     180.000       85.264      1.0        1
     180.000       85.263      1.0        1
     180.000       85.251      1.0        1
     180.000       85.228      1.0        1
     180.000       85.193      1.0        1
     180.000       85.146      1.0        1
     180.000       85.088      1.0        1
     180.000       85.017      1.0        1
     180.000       84.934      1.0        1
     180.000       84.839      1.0        1
     180.000       84.730      1.0        1
     180.000       84.609      1.0        1
     180.000       84.475      1.0        1
     180.000       84.328      1.0        1
     180.000       84.167      1.0        1
     180.000       83.993      1.0        1
     180.000       83.805      1.0        1
     180.000       83.603      1.0        1
     180.000       83.387      1.0        1
     180.000       83.157      1.0        1
     180.000       82.912      1.0        1
     180.000       82.653      1.0        1
     180.000       82.379      1.0        1
     180.000       82.090      1.0        1
     180.000       81.786      1.0        1
     180.000       81.467      1.0        1
     180.000       81.132      1.0        1
     180.000       80.782      1.0        1
     180.000       80.416      1.0        1
     180.000       80.034      1.0        1
     180.000       79.636      1.0        1
     180.000       79.222      1.0        1
     180.000       78.792      1.0        1
     180.000       78.345      1.0        1
     180.000       77.882      1.0        1
     180.000       77.402      1.0        1
     180.000       76.905      1.0        1
     180.000       76.391      1.0        1
     180.000       75.860      1.0        1
     180.000       75.311      1.0        1
     180.000       74.746      1.0        1
     180.000       74.163      1.0        1
     180.000       73.562      1.0        1
     180.000       72.944      1.0        1
     180.000       72.308      1.0        1
     180.000       71.654      1.0        1
     180.000       70.982      1.0        1
     180.000       70.292      1.0        1
     180.000       69.584      1.0        1
     180.000       68.858      1.0        1
     180.000       68.113      1.0        1
     180.000       67.350      1.0        1
     180.000       66.569      1.0        1
     180.000       65.769      1.0        1
     180.000       64.951      1.0        1
     180.000       64.114      1.0        1
     180.000       63.258      1.0        1
     180.000       62.384      1.0        1
     180.000       61.491      1.0        1
     180.000       60.579      1.0        1
     180.000       59.648      1.0        1
     180.000       58.699      1.0        1
     180.000       57.730      1.0        1
     180.000       56.743      1.0        1
     180.000       55.737      1.0        1
     180.000       54.713      1.0        1
     180.000       53.669      1.0        1
     180.000       52.607      1.0        1
     180.000       51.525      1.0        1
     180.000       50.425      1.0        1
     180.000       49.307      1.0        1
     180.000       48.169      1.0        1
     180.000       47.013      1.0        1
     180.000       45.838      1.0        1
     180.000       44.645      1.0        1
     180.000       43.433      1.0        1
     180.000       42.202      1.0        1
     180.000       40.953      1.0        1
     180.000       39.686      1.0        1
     180.000       38.401      1.0        1
     180.000       37.097      1.0        1
     180.000       35.776      1.0        1
     180.000       34.436      1.0        1
     180.000       33.078      1.0        1
     180.000       31.703      1.0        1
     180.000       30.310      1.0        1
     180.000       28.900      1.0        1
     180.000       27.472      1.0        1
     180.000       26.026      1.0        1
     180.000       24.564      1.0        1
     180.000       23.085      1.0        1
     180.000       21.588      1.0        1
     180.000       20.075      1.0        1
     180.000       18.546      1.0        1
     180.000       17.000      1.0        1
     180.000       15.438      1.0        1
     180.000       13.859      1.0        1
     180.000       12.265      1.0        1
     180.000       10.655      1.0        1
     180.000        9.030      1.0        1
     180.000        7.389      1.0        1
     180.000        5.733      1.0        1
     180.000        4.062      1.0        1
     180.000        2.376      1.0        1
     180.000        0.675      1.0        1
       0.000        0.000      1.0        0
       0.000        0.768      1.0        1
       0.000        2.511      1.0        1
       0.000        4.268      1.0        1
       0.000        6.038      1.0        1
       0.000        7.821      1.0        1
       0.000        9.618      1.0        1
       0.000       11.427      1.0        1
       0.000       13.249      1.0        1
       0.000       15.083      1.0        1
       0.000       16.929      1.0        1
       0.000       18.788      1.0        1
       0.000       20.657      1.0        1
       0.000       22.539      1.0        1
       0.000       24.431      1.0        1
       0.000       26.334      1.0        1
       0.000       28.248      1.0        1
       0.000       30.172      1.0        1
       0.000       32.107      1.0        1
       0.000       34.051      1.0        1
       0.000       36.005      1.0        1
       0.000       37.968      1.0        1
       0.000       39.940      1.0        1
       0.000       41.921      1.0        1
       0.000       43.911      1.0        1
       0.000       45.909      1.0        1
       0.000       47.915      1.0        1
       0.000       49.929      1.0        1
       0.000       51.950      1.0        1
       0.000       53.979      1.0        1
       0.000       56.014      1.0        1
       0.000       58.056      1.0        1
       0.000       60.105      1.0        1
       0.000       62.160      1.0        1
       0.000       64.221      1.0        1
       0.000       66.287      1.0        1
       0.000       68.359      1.0        1
       0.000       70.436      1.0        1
       0.000       72.517      1.0        1
       0.000       74.604      1.0        1
       0.000       76.694      1.0        1
       0.000       78.789      1.0        1
       0.000       80.888      1.0        1
       0.000       82.990      1.0        1
       0.000       85.095      1.0        1
       0.000       87.204      1.0        1
       0.000       89.315      1.0        1
       0.000       91.429      1.0        1
       0.000       93.545      1.0        1
       0.000       95.663      1.0        1
       0.000       97.783      1.0        1
       0.000       99.904      1.0        1
       0.000      102.027      1.0        1
       0.000      104.151      1.0        1
       0.000      106.275      1.0        1
       0.000      108.400      1.0        1
       0.000      110.526      1.0        1
       0.000      112.651      1.0        1
       0.000      114.776      1.0        1
       0.000      116.901      1.0        1
       0.000      119.025      1.0        1
       0.000      121.149      1.0        1
       0.000      123.271      1.0        1
       0.000      125.392      1.0        1
       0.000      127.511      1.0        1
       0.000      129.628      1.0        1
       0.000      131.743      1.0        1
       0.000      133.856      1.0        1
       0.000      135.967      1.0        1
       0.000      138.075      1.0        1
       0.000      140.179      1.0        1
       0.000      142.281      1.0        1
       0.000      144.379      1.0        1
       0.000      146.474      1.0        1
       0.000      148.565      1.0        1
       0.000      150.651      1.0        1
       0.000      152.733      1.0        1
       0.000      154.811      1.0        1
       0.000      156.884      1.0        1
       0.000      158.952      1.0        1
       0.000      161.015      1.0        1
       0.000      163.073      1.0        1
       0.000      165.124      1.0        1
       0.000      167.170      1.0        1
       0.000      169.210      1.0        1
       0.000      171.244      1.0        1
       0.000      173.271      1.0        1
       0.000      175.291      1.0        1
       0.000      177.304      1.0        1
       0.000      179.310      1.0        1
       0.000      181.309      1.0        1
       0.000      183.300      1.0        1
       0.000      185.282      1.0        1
       0.000      187.257      1.0        1
       0.000      189.224      1.0        1
       0.000      191.182      1.0        1
       0.000      193.131      1.0        1
       0.000      195.071      1.0        1
       0.000      197.001      1.0        1
       0.000      198.922      1.0        1
       0.000      200.833      1.0        1
       0.000      202.734      1.0        1
       0.000      204.625      1.0        1
       0.000      206.506      1.0        1
       0.000      208.375      1.0        1
       0.000      210.233      1.0        1
       0.000      212.080      1.0        1
       0.000      213.916      1.0        1
       0.000      215.739      1.0        1
       0.000      217.550      1.0        1
       0.000      219.349      1.0        1
       0.000      221.135      1.0        1
       0.000      222.908      1.0        1
       0.000      224.668      1.0        1
       0.000      226.415      1.0        1
       0.000      228.147      1.0        1
       0.000      229.865      1.0        1
       0.000      231.569      1.0        1
       0.000      233.258      1.0        1
       0.000      234.932      1.0        1
       0.000      236.591      1.0        1
       0.000      238.234      1.0        1
       0.000      239.861      1.0        1
       0.000      241.471      1.0        1
       0.000      243.065      1.0        1
       0.000      244.642      1.0        1
       0.000      246.201      1.0        1
       0.000      247.743      1.0        1
       0.000      249.267      1.0        1
       0.000      250.773      1.0        1
