Bruker BioSpin GmbH: the minispec
DataType=1
DataLimits=0.00062,2.00734,6272
DataUnit=Time/ms,Intensity/%
c:\minispec\wouter\lc_satrec_ldi.app
06.04.2017 16:38:13

0
0
0
0
0
0
0
0
0
0
0.0146492
0.0341814
0.0878949
0.449241
0.947312
1.21588
1.31842
1.25983
5.48367
18.7411
36.1834
48.9184
53.1569
52.5514
51.6773
52.5612
54.7829
56.7215
57.6639
56.8534
54.3044
51.0425
48.5082
47.6781
47.6976
48.6498
49.5093
49.1137
48.3031
47.2142
46.9408
47.4095
46.8089
45.0754
42.5509
40.4951
39.6992
39.831
40.7832
41.3936
41.169
41.1251
41.0225
40.461
40.5
40.2266
38.5761
36.5936
35.6414
35.9539
35.4314
33.8298
32.8873
33.737
34.2546
33.2731
33.1559
34.8601
36.3055
34.821
31.7252
30.5972
31.5494
33.1413
33.4684
31.1783
27.7748
26.7494
27.7504
29.1079
30.4995
30.3042
28.102
25.7483
24.5129
25.3333
26.8421
27.809
28.727
29.562
29.9722
29.2006
26.7689
24.3615
23.1603
23.4582
24.9963
25.8802
26.388
28.0238
29.6987
30.2505
29.8989
29.6304
29.7524
28.5658
26.7982
25.6946
24.7717
24.2248
24.8498
26.6859
27.5892
27.0277
26.6517
26.9349
26.5247
25.0989
24.0246
25.0598
27.0033
28.3217
28.8442
28.8491
28.4682
28.8149
29.5425
29.5083
28.9321
27.6625
25.1672
22.7062
23.0626
24.1516
23.7512
23.59
25.221
26.8861
26.8812
26.6468
26.764
26.3929
25.2112
24.3469
24.3518
23.4777
23.6144
23.3166
22.0128
23.0041
24.1565
25.5481
27.9945
29.0151
28.3998
27.4232
26.4368
24.9524
23.6486
23.0089
22.3351
22.0812
22.8966
24.4201
26.4906
28.0287
27.3841
26.0706
26.5101
27.4525
27.4379
26.2269
24.591
24.4153
24.9915
24.425
22.6915
21.2657
22.1349
23.0187
21.7833
20.4258
21.4317
24.1955
25.3284
25.1282
25.6702
26.6663
25.6897
23.551
23.2384
23.9025
24.1076
23.9025
23.6926
22.8673
23.0724
25.0989
25.2844
24.967
25.7532
26.3587
26.6273
25.4212
24.4592
24.425
24.5276
26.305
27.4476
25.8558
24.3908
24.5617
24.3029
22.5402
21.7345
23.3117
24.1613
24.2102
24.4397
24.1613
23.2531
20.7383
18.6874
19.5078
21.7491
24.2248
25.9192
25.802
23.9709
22.0226
20.6944
19.7226
20.1231
22.2228
24.4055
24.7473
24.215
23.38
22.4913
23.1994
25.2063
26.7884
25.5237
23.0675
22.2667
22.8527
23.9416
24.5666
23.9318
21.8956
21.6856
23.6535
23.4875
22.5353
24.1174
24.8743
25.553
28.3315
29.8843
28.8295
25.2307
22.1739
22.3253
23.3361
24.5178
24.4348
23.9855
24.0441
23.3898
21.9298
20.6309
20.5674
21.9102
23.9367
25.8655
27.2328
26.7445
25.3333
23.6779
22.5157
23.5168
24.8059
26.6468
27.1058
27.3939
28.3852
27.1058
25.4016
24.9182
24.4934
24.7375
24.6155
23.38
22.7453
22.9015
22.7599
22.8478
23.9172
26.0901
26.5882
25.2161
25.9241
27.3744
26.5394
24.3225
23.0041
23.7267
25.9436
27.0277
25.47
22.8869
22.8527
24.3078
23.7756
23.0724
23.756
24.5666
24.0783
22.6085
23.2482
25.3089
27.4232
29.2446
28.8198
27.1156
25.9925
26.2366
27.2474
26.8079
25.9681
26.598
27.7504
28.1899
27.5502
25.0305
21.9005
22.3302
23.6877
23.5558
22.5157
21.671
22.2276
23.2824
23.5314
22.9992
22.2521
22.7062
23.8293
24.1125
24.132
24.4787
24.4446
23.048
22.086
22.1056
22.4913
23.7414
24.6252
24.5764
24.7864
25.0159
24.425
23.634
23.1945
23.1945
23.2726
23.6584
23.5168
22.3741
22.672
24.1565
25.1965
24.8108
23.048
21.6319
20.8653
21.9102
23.5412
23.0626
23.3459
25.1428
25.1477
23.6877
22.8966
22.7111
22.6818
21.92
20.6993
19.791
19.1464
18.6728
18.6142
20.8116
23.3166
23.8684
22.5939
21.1778
21.4952
22.2765
21.5391
21.0264
20.8409
20.1719
20.6846
22.5157
23.6096
23.7609
23.4777
22.8478
23.2775
24.9915
25.7581
24.2785
24.0148
25.6995
25.7337
24.1027
22.838
24.5178
25.221
23.8684
24.2639
24.4983
24.4348
24.4592
24.3957
24.552
23.1603
22.0421
23.3019
24.0197
23.6388
23.1701
22.5353
21.5098
20.7237
21.2706
22.7111
24.7522
25.8411
24.2199
21.085
19.249
18.7656
18.6533
19.7031
21.2169
22.6964
24.1565
23.6877
20.8213
18.4384
18.4189
21.3633
23.1505
22.9699
23.5314
23.8
24.0246
23.9807
22.0323
22.1105
23.4484
22.7843
21.2559
20.9336
21.5294
24.1125
25.9436
25.2258
23.1505
22.0421
22.9552
22.921
21.4512
20.7286
20.792
21.5733
22.3986
21.8468
20.0498
19.6836
21.295
22.2374
22.8673
22.2228
20.9141
20.5625
20.626
20.4746
19.8301
20.5039
20.7481
20.5674
22.3839
23.9611
24.2639
23.3556
21.7393
21.0752
20.3184
19.8838
20.3184
20.167
20.2988
20.2793
21.2217
24.5666
24.9524
21.9737
20.1377
21.0508
22.423
22.0421
21.0948
21.085
20.1963
18.6581
18.9755
21.1436
23.214
23.5558
21.8907
20.499
20.9971
22.1642
22.8136
23.297
22.3204
20.2891
20.0303
20.0596
19.6396
20.8116
22.7013
23.1701
22.5011
21.4512
21.4024
20.9922
19.6885
19.3662
18.4726
18.248
21.129
24.0832
23.7316
21.3536
20.7237
20.5283
19.542
20.4551
21.2462
21.6221
21.9884
20.3037
18.5312
18.7216
19.1709
21.6466
24.0051
23.0187
20.4942
20.6358
21.8565
22.0323
21.5636
20.5283
20.0693
20.9678
22.2276
23.0529
22.9162
23.8684
24.8743
23.7316
22.716
21.1143
20.2549
22.13
22.7843
20.7676
19.3759
20.1572
20.9483
21.6905
22.7404
22.8771
21.4805
19.9473
18.8925
20.1182
23.0236
24.9426
25.0842
23.1457
21.7003
22.2569
22.6378
22.3107
21.7589
21.129
21.5587
22.1251
21.5147
21.3389
22.6427
23.2726
23.4484
22.7794
21.0899
20.5186
21.3731
21.5782
21.2462
21.1729
20.7725
21.2462
21.588
21.295
22.0177
23.7609
23.8195
22.4669
22.3302
22.8429
22.9406
22.8624
22.2081
23.1603
25.5139
26.1439
25.3235
24.8352
24.7034
24.3908
23.7023
23.1945
23.0138
21.9737
20.6309
19.9717
19.4248
20.1621
21.0557
20.4453
20.5821
22.1935
23.0724
23.3898
24.2639
24.6155
24.9817
23.966
21.378
20.9141
21.1729
19.8545
20.1377
20.9922
20.5137
21.0752
22.4425
24.0295
24.0441
21.8565
20.1768
20.5039
21.5147
22.7599
23.8439
24.5178
24.3274
22.9796
21.8761
22.0714
21.9249
20.836
20.0791
19.3222
18.9609
18.873
19.415
20.3428
21.3585
21.7345
21.3975
20.6651
20.3379
20.7969
20.8946
21.0459
22.1495
22.6671
22.0177
21.3975
20.792
21.7345
22.8966
22.3204
22.0323
22.3741
21.6368
20.0645
19.4394
19.7861
18.7802
18.1894
19.8154
20.3867
19.1709
18.5165
19.2295
19.5957
20.2891
21.3389
21.4561
22.3741
23.3996
24.0979
24.425
23.0529
21.0118
18.956
17.0028
17.2567
19.8789
22.5548
22.2325
20.2988
20.1621
20.7139
22.9992
25.0501
23.4777
21.1387
21.1534
21.0752
19.8398
20.5137
21.2852
20.167
18.2235
16.8856
16.7489
17.7011
20.377
22.3204
21.0167
19.3418
19.8789
18.7607
16.954
17.5448
19.1709
21.1924
20.7725
19.6689
19.4638
19.6689
20.7188
21.4464
21.5636
21.129
20.6944
20.7432
21.4464
21.5001
20.6504
20.0596
20.333
20.6651
21.8712
21.9933
21.3487
22.2032
22.2081
20.9874
20.8604
20.7481
20.6748
20.6895
20.7041
19.9717
18.7558
19.5713
21.0313
20.0742
18.0575
18.9658
20.3672
21.4219
21.881
21.212
22.379
23.7316
22.9015
20.4307
19.3125
20.9385
20.9483
20.6797
21.0655
20.3916
20.001
20.4356
19.6689
18.9121
19.2636
19.2148
19.4052
20.0449
21.1143
22.5548
23.2824
23.0041
21.3194
19.7471
20.7334
21.1924
21.2315
22.4425
21.9444
19.2441
17.3055
18.5507
20.9483
20.919
20.1426
21.4122
23.258
23.4777
22.8673
22.0763
22.6085
23.2482
22.1349
21.544
21.3048
21.5343
21.3926
18.873
17.2128
16.8221
16.7928
17.2616
18.0233
19.8252
20.2354
19.1171
18.9609
19.8447
20.8946
20.9825
20.1133
19.1367
18.5361
19.6006
21.7442
21.8468
19.5908
17.9257
18.204
17.9745
18.5409
20.3184
20.3672
19.0976
18.1259
18.6191
20.8067
21.6563
22.213
22.6183
21.9444
21.5929
20.8018
19.3222
19.9619
22.0616
21.3096
19.1513
18.7119
20.0449
21.5245
22.2228
22.6818
22.1593
20.709
20.2256
20.0352
19.7812
20.25
21.7979
22.3058
20.9043
19.5957
18.3945
18.2528
18.5165
18.1161
19.3515
21.2755
21.7052
21.5733
21.0118
20.9971
22.4327
22.6232
21.3975
21.0899
21.9395
22.6134
21.4268
20.1572
19.1855
17.9892
19.7861
22.1837
22.6134
21.1973
20.5283
20.8702
20.1084
20.2598
20.9239
19.835
19.1904
22.0616
24.7278
23.1261
19.8935
19.0244
20.3233
21.2169
21.3633
22.0909
22.3497
21.2901
20.2402
19.8496
19.0781
17.1151
15.9969
17.9696
20.543
21.2901
20.6993
20.4209
19.332
18.5605
18.8779
19.9375
21.6124
22.9015
22.1935
20.7237
21.5831
23.1212
24.3274
24.5959
23.3752
21.5538
20.2695
19.8935
19.3515
19.3759
21.2217
23.4191
22.9796
21.3682
19.8594
18.6972
19.4687
20.5918
21.7345
21.8858
20.0938
18.7851
18.2626
17.955
18.9804
21.334
23.2238
24.1516
24.2688
24.0344
22.7501
20.8018
18.7997
17.8183
18.0087
16.5535
15.6697
18.0673
20.2695
19.7519
19.2002
20.0303
21.0508
21.8956
21.9102
21.0997
20.6651
19.7715
18.1064
17.7841
17.8476
17.9306
19.083
19.5469
19.3613
20.5869
22.0714
22.1691
20.6748
18.6337
16.6952
16.119
17.9061
18.9121
18.2528
19.1025
22.462
23.8244
21.6417
19.083
18.2187
19.2295
20.0303
20.8555
22.2325
21.6954
20.2158
20.2549
20.9092
20.5869
17.955
15.7674
17.1493
18.79
19.4394
19.8691
20.9776
22.5988
22.0372
19.3369
18.3066
19.3027
20.6211
20.6944
19.4443
17.6864
17.0565
18.0429
19.122
18.8437
19.1318
21.0167
21.8175
20.5332
18.873
18.3359
18.6972
19.0048
18.331
16.954
16.4705
18.2919
19.4834
20.3379
22.7599
23.59
21.1631
19.5957
19.9717
19.6982
19.5615
20.1621
20.3867
19.4638
17.6571
17.3934
19.7031
20.3623
19.708
19.7568
19.3271
20.5967
22.0714
22.3888
21.4073
19.4101
18.7363
20.1816
21.6124
20.5576
19.3076
20.5967
23.8977
27.2279
27.4574
24.0832
20.3672
19.2002
19.9228
20.9532
21.4073
21.6466
21.3389
20.1377
18.3261
18.4433
20.4844
21.9933
21.505
20.0938
19.7324
20.4258
19.3906
17.3983
17.4862
18.5702
19.0195
19.5664
19.7226
20.0205
20.1377
19.3711
18.7216
18.5995
19.0146
20.0547
21.4708
21.2852
20.4649
21.0411
20.3281
18.1503
16.7928
16.3533
17.0858
18.5702
20.2744
20.7627
20.7041
21.1436
21.1241
20.6993
20.7969
19.7226
17.5155
18.4677
19.2636
17.8817
17.5399
19.1171
19.166
16.827
13.9704
13.7702
15.1619
15.9627
17.0418
18.3945
19.3466
20.4112
20.67
20.1914
20.2012
20.7823
20.7774
19.3808
18.5849
18.7704
17.7987
17.3641
18.7607
20.3037
19.6201
16.9979
16.1678
16.2117
15.9676
17.7108
19.5224
19.4345
19.0195
19.6103
21.5294
22.3497
21.7052
20.9727
21.1534
21.002
19.0195
17.789
18.3652
20.4209
21.6759
21.0508
20.0107
19.0341
19.1123
19.8154
20.9727
20.8702
19.581
19.835
19.1123
17.7987
19.0146
20.709
20.626
19.4394
17.9257
16.6707
16.9198
17.1688
16.2752
17.3348
20.2988
22.4327
23.2482
22.921
22.6476
21.9249
20.2842
17.8915
17.4764
19.1562
19.1123
18.4677
18.5751
17.7694
17.5106
17.789
18.1601
19.5566
19.2832
18.3847
19.2246
20.0645
19.7422
19.7422
21.4561
22.0421
20.4697
18.3652
17.6669
19.4687
21.2657
21.6173
21.1387
20.1475
19.664
20.0889
21.7149
22.5939
21.92
20.5674
17.828
16.075
17.6132
18.6142
18.7753
18.8974
17.6083
16.3387
17.7059
19.1757
18.8974
19.2099
20.0547
20.543
22.0519
22.7892
21.6563
19.918
18.2382
18.3945
19.1904
18.0868
18.0722
18.9365
18.0722
15.826
14.2487
16.744
19.3027
19.3125
19.2734
18.6142
16.8661
16.6366
16.8123
18.7753
21.8565
21.8419
20.6797
19.3808
17.369
17.6766
18.4579
17.1737
16.9051
18.2724
18.5409
19.1074
20.3477
21.0655
20.4697
18.9121
17.0174
15.9676
18.3212
20.4746
19.2246
18.2382
19.039
19.7812
19.6592
18.5898
17.9013
19.249
21.505
22.462
22.4767
22.2667
20.3721
18.4872
18.4628
18.1454
17.2323
16.9198
17.4423
18.0722
18.1357
17.7157
17.8524
19.0195
19.3173
18.1601
19.0585
21.0557
20.7578
20.2891
18.7363
15.616
17.0711
19.5566
20.167
21.2022
21.4903
20.1133
19.8643
20.875
21.002
21.0606
20.6895
18.6435
17.8915
18.4579
19.3857
20.9336
21.9444
21.378
18.8681
17.1444
16.7782
18.4042
20.6358
20.3428
19.6982
20.6797
20.8555
19.0585
17.3641
17.1883
18.7216
20.3086
20.9483
21.4219
21.7735
20.836
19.4638
19.6982
20.5137
19.9033
18.7167
19.6396
20.7286
20.6162
19.6347
17.6864
17.5839
18.8339
18.2675
16.4559
16.158
16.8514
17.9452
18.6191
17.6864
17.8231
17.5692
17.5399
19.1611
19.4883
18.2724
17.6425
17.0565
17.0174
18.4286
19.0341
18.5312
18.8632
17.7792
16.3094
18.6923
21.4561
22.1349
21.7442
21.4268
21.754
22.3302
21.2803
18.2333
17.1542
17.5692
17.076
17.1786
18.1942
17.6034
17.413
18.7656
20.6553
22.7648
22.3302
18.6533
17.1639
18.0868
18.1845
18.9511
18.7411
16.1922
15.2449
17.4471
18.2724
17.1883
16.4168
18.1015
19.9717
20.5821
19.6885
17.413
17.3348
18.3456
18.204
16.6952
14.9128
15.3035
17.9208
19.9619
20.4502
20.0303
18.746
17.7157
18.2138
19.1855
19.4297
18.6484
18.624
19.7764
19.7764
17.9794
16.4119
16.368
17.4862
18.3896
18.8242
19.3027
18.5849
18.5458
20.875
21.1338
18.1112
17.7694
21.2559
23.4289
23.5217
21.964
18.7753
16.9442
17.2323
19.2099
20.9483
20.6602
19.0195
17.4911
17.7304
18.1747
18.6093
18.9023
19.0097
19.9521
22.1007
22.6085
20.9678
19.5957
19.249
18.3407
18.2382
18.2138
16.827
15.9285
16.2752
18.58
20.4649
20.2647
20.3819
19.5908
17.6669
18.3847
19.0439
18.7509
18.663
17.8183
18.0429
17.9989
17.9208
20.6993
22.3937
20.4502
18.8876
20.9385
22.8234
22.4816
20.2988
16.8954
17.7938
19.0683
17.8768
18.5702
18.7119
18.3652
19.8008
21.9249
21.4903
20.7969
22.1886
22.1349
21.1583
20.836
19.9228
19.1123
19.6738
18.7802
17.5985
17.7792
17.7743
17.9843
18.2968
18.4091
17.8866
16.4071
16.2117
18.1552
18.3407
17.5106
17.1737
15.8211
14.8835
16.4412
18.3163
18.8632
18.58
17.911
17.6669
19.4297
20.8604
21.2364
21.2071
21.1631
21.7931
21.8517
19.9766
18.956
20.3916
21.7003
21.1143
20.4258
20.8262
20.4649
18.5898
17.6425
18.8486
20.2793
20.0254
18.287
17.7255
17.5546
18.1308
19.2978
20.5186
22.0567
22.1153
21.5147
21.5684
22.1593
21.5636
19.8398
18.8486
18.6679
16.2361
15.1619
17.7645
18.6581
18.0673
17.3788
17.0516
17.8622
19.1757
17.7304
16.6952
18.8925
19.4736
17.9208
16.6073
18.1161
20.2988
21.1827
20.9385
19.4541
18.1698
17.5497
18.4628
19.0097
18.3603
17.6864
16.7049
16.2606
16.3045
16.4071
15.7674
15.45
17.6278
20.0205
20.9922
20.7481
19.4443
18.7656
19.2783
19.6885
18.6777
17.9745
19.0048
19.5566
19.6201
18.7851
17.7499
18.7558
20.1816
19.6738
19.0292
19.6006
19.9814
19.1367
17.8329
18.453
20.1768
22.003
22.716
21.92
21.2559
21.3731
23.0919
23.3654
19.6836
16.3143
15.8016
15.2205
15.0984
16.3875
16.8221
17.0028
16.8075
16.9198
18.4433
19.4004
20.2647
21.1729
20.3672
19.4931
19.874
19.8105
19.7568
20.8213
20.9971
20.1231
20.2207
19.1757
18.4189
19.5371
19.0146
18.0868
17.4178
15.8455
14.7908
15.7771
16.3729
17.6278
18.5947
19.0878
19.5713
18.8388
17.7108
17.9208
18.9023
19.9814
20.5283
19.0732
17.3885
17.5741
18.1161
18.8681
21.4024
22.5011
21.0704
19.5713
19.6885
21.212
22.7013
22.6525
21.0069
19.5615
18.331
16.0506
14.8884
16.7196
18.7704
18.7314
18.4384
18.2284
17.1444
16.7537
17.3446
18.7851
20.4502
20.2207
19.2588
18.2284
16.6219
17.6229
19.8301
20.3428
19.2636
19.3222
20.5283
20.2305
18.0233
16.744
17.5399
18.0722
17.8964
18.6777
20.167
21.4561
22.4181
21.7149
19.581
17.8183
17.1444
16.9442
18.1942
19.6836
18.3359
16.3094
15.9676
16.0311
17.0858
17.6034
17.1688
16.6903
17.0858
17.3495
16.7293
16.4266
16.8514
17.8085
18.9755
19.8252
19.8203
19.9375
20.8506
20.875
20.6358
19.8447
19.0927
19.7715
19.0488
17.9647
19.3173
20.7969
20.8067
21.0411
21.5343
19.459
17.994
18.7607
17.4471
16.0945
16.8416
17.7694
16.8465
15.0349
15.4939
16.1043
17.6473
18.7704
17.5643
15.7918
16.3631
17.6864
18.287
19.1855
18.8339
18.2138
17.9306
16.9442
16.6707
17.0809
17.7841
17.8866
17.6278
17.7694
17.1395
16.7391
18.0917
18.6874
18.6093
18.2821
19.2246
21.0997
22.0567
22.3546
20.7188
18.3017
19.2246
21.6173
22.672
22.7306
21.7589
20.5625
20.5625
19.7617
18.2821
19.5224
20.1621
20.4453
20.5576
17.9599
16.6219
18.1942
18.37
16.7391
16.8319
20.3037
25.8216
28.7514
27.0619
24.0979
21.4561
19.3173
18.829
18.3993
17.7938
18.0429
18.0771
16.6903
14.8298
16.8221
20.2451
22.1153
22.5939
22.2179
19.8594
16.4852
14.8738
14.9861
16.8368
19.0195
18.3505
17.4178
19.8594
21.2364
19.8984
19.9912
20.4453
18.2968
15.7381
15.7332
18.1845
18.9414
18.1894
19.039
19.9668
19.6396
19.8154
20.9727
20.9825
19.6445
19.1562
19.3711
18.7363
19.7471
19.5762
16.744
16.0408
19.2392
21.2462
19.9668
17.7987
17.413
19.332
20.3526
18.7997
17.5204
17.5155
18.3066
18.9121
19.4785
19.1367
17.8183
19.1123
20.3574
19.2978
18.9365
19.0097
19.5566
20.1426
19.332
18.7265
18.0624
18.1259
18.1845
17.6718
17.5936
18.0233
18.497
17.789
17.3885
18.4921
19.6201
19.5859
19.2197
19.4834
18.2626
17.2616
18.4238
17.6815
15.8601
16.2459
16.8856
17.5839
19.5957
21.5538
20.8311
17.7401
16.285
18.1357
19.1953
18.0233
17.6229
18.0282
17.4716
16.6756
17.3202
19.3027
21.0557
21.4268
20.8604
21.7149
22.9748
21.8858
20.3233
21.3048
20.7578
18.2626
17.7597
18.6923
20.1328
19.7617
18.8779
19.7715
19.2295
17.6132
17.9794
19.4101
19.6689
17.9501
16.3924
18.1259
20.1816
21.0069
21.1924
20.3477
19.332
18.6435
18.5751
19.625
19.6103
17.9452
18.4286
21.0752
21.168
19.5957
20.3819
20.9239
20.1524
19.8154
19.8447
19.9912
18.7753
17.8671
17.9452
17.9013
19.1709
19.2734
18.7851
20.1475
22.1105
22.8917
22.1153
20.4942
19.6885
20.1328
20.416
18.8486
16.5877
15.9773
17.2567
18.9414
18.8486
18.2528
19.5469
21.334
21.1876
18.497
16.744
17.7352
18.6337
18.3407
18.3261
18.4042
19
19.708
19.6445
20.5772
20.8604
18.4677
16.2654
16.8807
18.3993
20.2744
21.8517
21.5343
20.1426
20.1914
19.4785
18.3798
19.5566
20.0254
20.416
21.1094
20.2598
18.2821
17.911
18.8632
19.6543
21.2901
21.1973
17.7157
14.4392
15.6306
18.4042
18.7216
18.8339
19.2734
20.0352
21.5343
21.8956
20.4258
18.7753
18.6679
18.8974
17.911
16.4217
17.3202
19.6201
19.7568
19.2295
19.6885
19.3466
18.7851
17.9257
17.4618
18.2235
18.3749
19.4834
21.0362
20.2598
17.7597
15.6013
15.9627
17.5155
17.3885
15.8211
16.1629
18.3359
18.5947
17.3837
18.3066
19.2636
18.2235
18.1503
20.0742
21.7345
21.2706
20.084
20.3965
20.5674
18.9951
16.8368
15.5672
16.5487
18.2187
18.7167
19.1709
19.0634
17.0711
16.0066
17.369
19.1416
19.1562
17.12
16.1287
16.4168
16.7489
18.248
18.9658
18.5702
17.1297
15.9285
17.4471
17.3299
14.2243
14.8738
17.1346
17.4276
16.368
16.0945
18.4286
19.7422
19.2246
19.8984
21.9933
23.0529
22.3009
19.708
16.6854
16.6073
18.0673
18.9511
18.8339
17.6864
17.9061
18.6337
19.1269
19.3418
18.9267
19.1464
19.7422
18.3261
16.5584
17.6669
17.8085
16.5047
15.406
14.9714
15.1912
16.7782
18.8583
19.122
18.9316
20.377
21.9249
21.754
20.3233
18.9755
18.37
18.6288
19.7861
20.0693
19.1123
18.6533
20.0303
20.0791
18.5947
20.0547
20.6162
18.5409
17.955
18.4482
19.0195
19.1171
18.7314
18.746
18.8583
18.4823
17.5399
16.7244
16.7733
17.1249
17.0858
16.3338
15.6209
17.2176
18.7509
18.8583
18.6581
19.0439
19.708
18.9609
